#Acq. time (s)=	15
#Accumulations=	4
#Range (cm-¹)=	50...4000
#Windows=	3
#Autofocus=	Off
#AutoExposure=	Off
#Spike filter=	Multiple accum.
#Delay time (s)=	0
#Binning=	1
#Readout mode=	Signal
#DeNoise=	Off
#ICS correction=	Off
#Dark correction=	Off
#Inst. Process=	Off
#Instrument=	LabRAM HR Evol
#Detector=	Syncerity OE
#Objective=	x100_VIS
#Grating=	600 (500nm)
#ND Filter=	5%
#Laser=	532nm_Edge
#Hole=	100.021
#Range=	Visible
#Project=	Omar
#Sample=	120523
#Site=	ap
#Title=	mz
#Remark=	5 laser intensity
#Date=	12.05.2023 17:33
#Acquired=	12.05.2023 17:33:01
51.0297	-486
52.8754	-486
54.7185	-486
56.5635	-486
58.406	-486
60.2502	-486
62.0919	-486
63.9355	-486
65.7765	-486
67.6193	-486
69.4595	-486
71.3016	-486
73.1412	-486
74.9825	-486
76.8214	-486
78.662	-486
80.5001	-486
82.34	-486
84.1774	-486
86.0166	-486
87.8532	-486
89.6917	-486
91.5276	-486
93.3632	-486
95.2006	-486
97.0355	-486
98.8721	-486
100.706	-486
102.54	-486
104.376	-486
106.209	-486
108.041	-486
109.876	-486
111.708	-486
113.542	-486
115.373	-486
117.204	-486
119.036	-486
120.867	-486
122.697	-486
124.526	-486
126.357	-486
128.186	-486
130.014	-486
131.845	-486
133.672	-486
135.5	-486
137.327	-486
139.155	-486
140.982	-486
142.807	-486
144.633	-486
146.46	-486
148.285	-486
150.11	-486
151.934	-486
153.757	-486
155.583	-486
157.406	-486
159.229	-486
161.051	-486
162.873	-486
164.697	-486
166.518	-486
168.339	-486
170.159	-486
171.98	-486
173.799	-486
175.619	-486
177.44	-486
179.259	-486
181.077	-486
182.895	-486
184.713	-486
186.53	-486
188.347	-486
190.164	-486
191.98	-486
193.796	-486
195.612	-486
197.427	-486
199.242	-486
201.059	-486
202.873	-486
204.686	-486
206.5	-486
208.313	-486
210.126	-486
211.938	-486
213.75	-486
215.562	-486
217.373	-486
219.184	-486
220.993	-486
222.803	-486
224.613	-486
226.422	-486
228.232	-486
230.04	-486
231.849	-486
233.657	-486
235.465	-486
237.272	-486
239.079	-486
240.886	-486
242.693	-486
244.497	-486
246.302	-486
248.108	-486
249.913	-486
251.717	-486
253.521	-486
255.325	-486
257.127	-486
258.93	-486
260.733	-486
262.535	-486
264.338	-486
266.137	-486
267.939	-486
269.74	-486
271.541	-486
273.341	-486
275.139	-486
276.939	-486
278.738	-486
280.537	-486
282.334	-486
284.132	-486
285.93	-486
287.728	-486
289.523	-486
291.32	-486
293.117	-486
294.911	-486
296.707	-486
298.502	-486
300.295	-486
302.09	-486
303.885	-486
305.677	-486
307.47	-486
309.264	-486
311.055	-486
312.848	-486
314.64	-486
316.43	-486
318.222	-486
320.011	-486
321.802	-486
323.593	-486
325.381	-486
327.171	-486
328.958	-486
330.748	-486
332.535	-486
334.323	-486
336.109	-486
337.897	-486
339.685	-486
341.47	-486
343.257	-486
345.041	-486
346.827	-486
348.611	-486
350.397	-486
352.18	-486
353.962	-486
355.747	-486
357.529	-486
359.312	-486
361.094	-486
362.877	-486
364.658	-486
366.44	-486
368.22	-486
369.999	-486
371.781	-486
373.56	-486
375.34	-486
377.119	-486
378.896	-486
380.676	-486
382.453	-486
384.23	-486
386.009	-486
387.785	-486
389.561	-486
391.338	-486
393.113	-486
394.888	-486
396.665	-486
398.439	-486
400.213	-486
401.988	-486
403.761	-486
405.534	-486
407.306	-486
409.081	-486
410.852	-486
412.624	-486
414.395	-486
416.167	-486
417.938	-486
419.708	-486
421.477	-486
423.249	-486
425.018	-486
426.786	-486
428.555	-486
430.323	-486
432.092	-486
433.86	-486
435.627	-486
437.393	-486
439.16	-486
440.926	-486
442.691	-486
444.458	-486
446.223	-486
447.988	-486
449.752	-486
451.516	-486
453.28	-486
455.043	-486
456.806	-486
458.568	-486
460.33	-486
462.092	-486
463.854	-486
465.615	-486
467.378	-486
469.138	-486
470.899	-486
472.658	-486
474.418	-486
476.177	-486
477.936	-486
479.694	-486
481.452	-486
483.21	-486
484.966	-486
486.723	-486
488.48	-486
490.236	-486
491.992	-486
493.748	-486
495.503	-486
497.258	-486
499.013	-486
500.768	-486
502.522	-486
504.276	-486
506.029	-486
507.78	-486
509.533	-486
511.285	-486
513.037	-486
514.789	-486
516.54	-486
518.289	-486
520.04	-486
521.791	-486
523.541	-486
525.29	-486
527.04	-486
528.787	-486
530.536	-486
532.284	-486
534.032	-486
535.778	-486
537.525	-486
539.272	-486
541.019	-486
542.763	-486
544.509	-486
546.255	-486
548	-486
549.743	-486
551.488	-486
553.232	-486
554.974	-486
556.718	-486
558.462	-486
560.203	-486
561.945	-486
563.688	-486
565.428	-486
567.169	-486
568.911	-486
570.65	-486
572.391	-486
574.129	-486
575.869	-486
577.609	-486
579.346	-486
581.085	-486
582.822	-486
584.56	-486
586.296	-486
588.034	-486
589.771	-486
591.506	-486
593.243	-486
594.978	-486
596.714	-486
598.447	-486
600.183	-486
601.916	-486
603.651	-486
605.383	-486
607.117	-486
608.849	-486
610.582	-486
612.313	-486
614.044	-486
615.776	-486
617.507	-486
619.238	-486
620.968	-486
622.699	-486
624.428	-486
626.156	-486
627.886	-486
629.614	-486
631.342	-486
633.071	-486
634.797	-486
636.526	-486
638.252	-486
639.978	-486
641.705	-486
643.431	-486
645.155	-486
646.88	-486
648.606	-486
650.33	-486
652.053	-486
653.779	-486
655.502	-486
657.224	-486
658.946	-486
660.67	-486
662.392	-486
664.113	-486
665.834	-486
667.556	-486
669.277	-486
670.997	-486
672.716	-486
674.435	-486
676.156	-486
677.875	-486
679.593	-486
681.311	-486
683.029	-486
684.746	-486
686.465	-486
688.182	-486
689.898	-486
691.614	-486
693.33	-486
695.045	-486
696.76	-486
698.475	-486
700.189	-486
701.904	-486
703.619	-486
705.333	-486
707.046	-486
708.759	-486
710.471	-486
712.183	-486
713.895	-486
715.606	-486
717.317	-486
719.028	-486
720.739	-486
722.449	-486
724.159	-486
725.868	-486
727.578	-486
729.286	-486
730.995	-486
732.703	-486
734.409	-486
736.117	-486
737.824	-486
739.531	-486
741.237	-486
742.944	-486
744.65	-486
746.355	-486
748.061	-486
749.766	-486
751.468	-486
753.173	-486
754.877	-486
756.581	-486
758.284	-486
759.987	-486
761.688	-486
763.39	-486
765.092	-486
766.794	-486
768.496	-486
770.195	-486
771.896	-486
773.596	-486
775.296	-486
776.994	-486
778.694	-486
780.393	-486
782.092	-486
783.788	-486
785.487	-486
787.185	-486
788.882	-486
790.578	-486
792.274	-486
793.971	-486
795.666	-486
797.362	-486
799.057	-486
800.751	-486
802.446	-486
804.138	-486
805.833	-486
807.527	-486
809.219	-486
810.912	-486
812.605	-486
814.296	-486
815.989	-486
817.679	-486
819.371	-486
821.06	-486
822.752	-486
824.441	-486
826.131	-486
827.822	-486
829.51	-486
831.199	-486
832.887	-486
834.576	-486
836.262	-486
837.951	-486
839.637	-486
841.323	-486
843.01	-486
844.695	-486
846.382	-486
848.066	-486
849.753	-486
851.436	-486
853.122	-486
854.805	-486
856.488	-486
858.173	-486
859.855	-486
861.539	-486
863.221	-486
864.902	-486
866.585	-486
868.266	-486
869.946	-486
871.628	-486
873.308	-486
874.987	-486
876.668	-486
878.347	-486
880.026	-486
881.704	-486
883.384	-486
885.061	-486
886.739	-486
888.418	-486
890.094	-486
891.771	-486
893.447	-486
895.122	-486
896.799	-486
898.475	-486
900.149	-486
901.824	-486
903.498	-486
905.174	-486
906.847	-486
908.52	-486
910.193	-486
911.866	-486
913.538	-486
915.212	-486
916.883	-486
918.555	-486
920.226	-486
921.896	-486
923.567	-486
925.237	-486
926.907	-486
928.576	-486
930.245	-486
931.914	-486
933.584	-486
935.253	-486
936.92	-486
938.588	-486
940.255	-486
941.922	-486
943.589	-486
945.255	-486
946.921	-486
948.587	-486
950.252	-486
951.917	-486
953.582	-486
955.244	-486
956.909	-486
958.572	-486
960.236	-486
961.899	-486
963.562	-486
965.225	-486
966.887	-486
968.549	-486
970.211	-486
971.872	-486
973.531	-486
975.192	-486
976.852	-486
978.512	-486
980.172	-486
981.831	-486
983.489	-486
985.148	-486
986.806	-486
988.464	-486
990.122	-486
991.778	-486
993.435	-486
995.092	-486
996.749	-486
998.404	-486
1000.06	-486
1001.72	-486
1003.37	-486
1005.02	-486
1006.68	-486
1008.33	-486
1009.99	-486
1011.64	-486
1013.29	-486
1014.95	-486
1016.6	-486
1018.25	-486
1019.9	-486
1021.55	-486
1023.2	-486
1024.85	-486
1026.51	-486
1028.16	-486
1029.81	-486
1031.46	-486
1033.1	-486
1034.75	-486
1036.4	-486
1038.05	-486
1039.7	-486
1041.34	-486
1042.99	-486
1044.64	-486
1046.29	-486
1047.93	-486
1049.58	-486
1051.22	-486
1052.87	-486
1054.51	-486
1056.16	-486
1057.8	-486
1059.45	-486
1061.09	-486
1062.73	-486
1064.38	-486
1066.02	-486
1067.66	-486
1069.3	-486
1070.95	-486
1072.59	-486
1074.23	-486
1075.87	-486
1077.51	-486
1079.15	-486
1080.79	-486
1082.43	-486
1084.07	-486
1085.71	-486
1087.35	-486
1088.99	-486
1090.62	-486
1092.26	-486
1093.9	-486
1095.53	-486
1097.17	-486
1098.81	-486
1100.44	-486
1102.08	-486
1103.71	-486
1105.35	-486
1106.99	-486
1108.62	-486
1110.25	-486
1111.89	-486
1113.52	-486
1115.15	-486
1116.79	-486
1118.42	-486
1120.05	-486
1121.68	-486
1123.31	-486
1124.95	-486
1126.58	-486
1128.21	-486
1129.84	-486
1131.47	-486
1133.1	-486
1134.73	-486
1136.36	-486
1137.98	-486
1139.61	-486
1141.24	-486
1142.87	-486
1144.5	-486
1146.12	-486
1147.75	-486
1149.38	-486
1151	-486
1152.63	-486
1154.26	-486
1155.88	-486
1157.51	-486
1159.13	-486
1160.76	-486
1162.38	-486
1164	-486
1165.63	-486
1167.25	-486
1168.87	-486
1170.49	-486
1172.12	-486
1173.74	-486
1175.36	-486
1176.98	-486
1178.6	-486
1180.22	-486
1181.84	-486
1183.46	-486
1185.08	-486
1186.7	-486
1188.32	-486
1189.94	-486
1191.56	-486
1193.18	-486
1194.79	-486
1196.41	-486
1198.03	-486
1199.64	-486
1201.26	-486
1202.88	-486
1204.49	-486
1206.11	-486
1207.72	-486
1209.34	-486
1210.95	-486
1212.57	-486
1214.18	-486
1215.8	-486
1217.41	-486
1219.02	-486
1220.64	-486
1222.25	-486
1223.86	-486
1225.47	-486
1227.08	-486
1228.69	-486
1230.3	-486
1231.92	-486
1233.53	-486
1235.14	-486
1236.75	-486
1238.35	-486
1239.96	-486
1241.57	-486
1243.18	-486
1244.79	-486
1246.4	-486
1248.01	-486
1249.61	-486
1251.22	-486
1252.82	-486
1254.43	-486
1256.04	-486
1257.64	-486
1259.25	-486
1260.85	-486
1262.46	-486
1264.06	-486
1265.67	-486
1267.27	-486
1268.87	-486
1270.48	-486
1272.08	-486
1273.68	-486
1275.28	-486
1276.89	-486
1278.49	-486
1280.09	-486
1281.69	-486
1283.29	-486
1284.89	-486
1286.49	-486
1288.09	-486
1289.69	-486
1291.29	-486
1292.89	-486
1294.49	-486
1296.09	-486
1297.68	-486
1299.28	-486
1300.88	-486
1302.48	-486
1304.07	-486
1305.67	-486
1307.26	-486
1308.86	-486
1310.46	-486
1312.05	-486
1313.65	-486
1315.24	-486
1316.84	-486
1318.43	-486
1320.02	-486
1321.62	-486
1323.21	-486
1324.8	-486
1326.39	-486
1327.99	-486
1329.58	-486
1331.17	-486
1332.76	-486
1334.35	-486
1335.94	-486
1337.53	-486
1339.12	-486
1340.71	-486
1342.3	-486
1343.89	-486
1345.48	-486
1347.07	-486
1348.65	-486
1350.24	-486
1351.83	-486
1353.42	-486
1355	-486
1356.59	-486
1358.18	-486
1359.76	-486
1361.35	-486
1362.93	-486
1364.52	-486
1366.1	-486
1367.69	-486
1369.27	-486
1370.86	-486
1372.44	-486
1374.02	-486
1375.61	-486
1377.19	-486
1378.77	-486
1380.35	-486
1381.93	-486
1383.52	-486
1385.1	-486
1386.68	-486
1388.26	-486
1389.84	-486
1391.42	-486
1393	-486
1394.58	-486
1396.16	-486
1397.74	-486
1399.31	-486
1400.89	-486
1402.47	-486
1404.05	-486
1405.63	-486
1407.2	-486
1408.78	-486
1410.36	-486
1411.93	-486
1413.51	-486
1415.08	-486
1416.66	-486
1418.23	-486
1419.81	-486
1421.38	-486
1422.95	-486
1424.53	-486
1426.1	-486
1427.68	-486
1429.25	-486
1430.82	-486
1432.39	-486
1433.96	-486
1435.54	-486
1437.11	-486
1438.68	-486
1440.25	-486
1441.82	-486
1443.39	-486
1444.96	-486
1446.53	-486
1448.1	-486
1449.67	-486
1451.23	-486
1452.8	-486
1454.37	-486
1455.94	-486
1457.5	-486
1459.07	-486
1460.64	-486
1462.21	-486
1463.77	-486
1465.34	-486
1466.9	-486
1468.47	-486
1470.03	-486
1471.6	-486
1473.16	-486
1474.72	-486
1476.29	-486
1477.85	-486
1479.42	-486
1480.98	-486
1482.54	-486
1484.1	-486
1485.66	-486
1487.23	-486
1488.79	-486
1490.35	-486
1491.91	-486
1493.47	-486
1495.03	-486
1496.59	-486
1498.15	-486
1499.71	-486
1501.27	-486
1502.83	-486
1504.39	-486
1505.94	-486
1507.5	-486
1509.06	-486
1510.62	-486
1512.17	-486
1513.73	-486
1515.29	-486
1516.84	-486
1518.4	-486
1519.95	-486
1521.51	-486
1523.06	-486
1524.62	-486
1526.17	-486
1527.72	-486
1529.28	-486
1530.83	-486
1532.38	-486
1533.94	-486
1535.49	-486
1537.04	-486
1538.59	-486
1540.15	-486
1541.7	-486
1543.25	-486
1544.8	-486
1546.35	-486
1547.9	-486
1549.45	-486
1551	-486
1552.55	-486
1554.1	-486
1555.65	-486
1557.19	-486
1558.74	-486
1560.29	-486
1561.84	-486
1563.38	-486
1564.93	-486
1566.48	-486
1568.02	-486
1569.57	-486
1571.12	-486
1572.66	-486
1574.2	-486
1575.75	-486
1577.3	-486
1578.84	-486
1580.38	-486
1581.93	-486
1583.47	-486
1585.01	-486
1586.56	-486
1588.1	-486
1589.64	-486
1591.18	-486
1592.72	-486
1594.27	-486
1595.81	-486
1597.35	-486
1598.89	-486
1600.43	-486
1601.97	-486
1603.51	-486
1605.05	-486
1606.59	-486
1608.12	-486
1609.66	-486
1611.2	-486
1612.74	-486
1614.27	-486
1615.81	-486
1617.35	-486
1618.89	-486
1620.42	-486
1621.96	-486
1623.5	-486
1625.03	-486
1626.57	-486
1628.1	-486
1629.63	-486
1631.17	-486
1632.7	-486
1634.24	-486
1635.77	-486
1637.3	-486
1638.84	-486
1640.37	-486
1641.9	-486
1643.43	-486
1644.97	-486
1646.5	-486
1648.03	-486
1649.56	-486
1651.09	-486
1652.62	-486
1654.15	-486
1655.68	-486
1657.21	-486
1658.74	-486
1660.27	-486
1661.79	-486
1663.32	-486
1664.85	-486
1666.38	-486
1667.91	-486
1669.43	-486
1670.96	-486
1672.49	-486
1674.01	-486
1675.54	-486
1677.06	-486
1678.59	-486
1680.11	-486
1681.64	-486
1683.16	-486
1684.69	-486
1686.21	-486
1687.73	-486
1689.26	-486
1690.78	-486
1692.3	-486
1693.83	-486
1695.35	-486
1696.87	-486
1698.39	-486
1699.91	-486
1701.43	-486
1702.96	-486
1704.48	-486
1706	-486
1707.52	-486
1709.04	-486
1710.55	-486
1712.07	-486
1713.59	-486
1715.11	-486
1716.63	-486
1718.15	-486
1719.66	-486
1721.18	-486
1722.7	-486
1724.21	-486
1725.73	-486
1727.25	-486
1728.76	-486
1730.28	-486
1731.8	-486
1733.31	-486
1734.82	-486
1736.34	-486
1737.85	-486
1739.37	-486
1740.88	-486
1742.39	-486
1743.91	-486
1745.42	-486
1746.93	-486
1748.45	-486
1749.96	-486
1751.47	-486
1752.98	-486
1754.49	-486
1756	-486
1757.51	-486
1757.73	-486
1759.25	-486
1760.77	-486
1762.28	-486
1763.8	-486
1765.31	-486
1766.83	-486
1768.34	-486
1769.86	-486
1771.37	-486
1772.89	-486
1774.4	-486
1775.92	-486
1777.43	-486
1778.94	-486
1780.46	-486
1781.97	-486
1783.48	-486
1784.99	-486
1786.51	-486
1788.02	-486
1789.53	-486
1791.04	-486
1792.55	-486
1794.06	-486
1795.57	-486
1797.08	-486
1798.59	-486
1800.1	-486
1801.61	-486
1803.12	-486
1804.63	-486
1806.13	-486
1807.64	-486
1809.15	-486
1810.66	-486
1812.16	-486
1813.67	-486
1815.18	-486
1816.68	-486
1818.19	-486
1819.7	-486
1821.2	-486
1822.71	-486
1824.21	-486
1825.72	-486
1827.22	-486
1828.72	-486
1830.23	-486
1831.73	-486
1833.23	-486
1834.74	-486
1836.24	-486
1837.74	-486
1839.24	-486
1840.75	-486
1842.25	-486
1843.75	-486
1845.25	-486
1846.75	-486
1848.25	-486
1849.75	-486
1851.25	-486
1852.75	-486
1854.25	-486
1855.75	-486
1857.25	-486
1858.75	-486
1860.24	-486
1861.74	-486
1863.24	-486
1864.74	-486
1866.23	-486
1867.73	-486
1869.23	-486
1870.72	-486
1872.22	-486
1873.71	-486
1875.21	-486
1876.7	-486
1878.2	-486
1879.69	-486
1881.19	-486
1882.68	-486
1884.18	-486
1885.67	-486
1887.16	-486
1888.66	-486
1890.15	-486
1891.64	-486
1893.13	-486
1894.62	-486
1896.11	-486
1897.61	-486
1899.1	-486
1900.59	-486
1902.08	-486
1903.57	-486
1905.06	-486
1906.55	-486
1908.04	-486
1909.53	-486
1911.02	-486
1912.5	-486
1913.99	-486
1915.48	-486
1916.97	-486
1918.46	-486
1919.94	-486
1921.43	-486
1922.92	-486
1924.4	-486
1925.89	-486
1927.37	-486
1928.86	-486
1930.34	-486
1931.83	-486
1933.31	-486
1934.8	-486
1936.28	-486
1937.77	-486
1939.25	-486
1940.73	-486
1942.22	-486
1943.7	-486
1945.18	-486
1946.66	-486
1948.14	-486
1949.63	-486
1951.11	-486
1952.59	-486
1954.07	-486
1955.55	-486
1957.03	-486
1958.51	-486
1959.99	-486
1961.47	-486
1962.95	-486
1964.43	-486
1965.91	-486
1967.39	-486
1968.86	-486
1970.34	-486
1971.82	-486
1973.3	-486
1974.77	-486
1976.25	-486
1977.73	-486
1979.2	-486
1980.68	-486
1982.15	-486
1983.63	-486
1985.1	-486
1986.58	-486
1988.05	-486
1989.53	-486
1991	-486
1992.47	-486
1993.95	-486
1995.42	-486
1996.89	-486
1998.37	-486
1999.84	-486
2001.31	-486
2002.78	-486
2004.25	-486
2005.73	-486
2007.2	-486
2008.67	-486
2010.14	-486
2011.61	-486
2013.08	-486
2014.55	-486
2016.02	-486
2017.49	-486
2018.96	-486
2020.42	-486
2021.89	-486
2023.36	-486
2024.83	-486
2026.3	-486
2027.76	-486
2029.23	-486
2030.7	-486
2032.16	-486
2033.63	-486
2035.09	-486
2036.56	-486
2038.03	-486
2039.49	-486
2040.96	-486
2042.42	-486
2043.88	-486
2045.35	-486
2046.81	-486
2048.28	-486
2049.74	-486
2051.2	-486
2052.67	-486
2054.13	-486
2055.59	-486
2057.05	-486
2058.51	-486
2059.97	-486
2061.43	-486
2062.9	-486
2064.36	-486
2065.82	-486
2067.28	-486
2068.74	-486
2070.2	-486
2071.65	-486
2073.11	-486
2074.57	-486
2076.03	-486
2077.49	-486
2078.95	-486
2080.4	-486
2081.86	-486
2083.32	-486
2084.78	-486
2086.23	-486
2087.69	-486
2089.15	-486
2090.6	-486
2092.05	-486
2093.51	-486
2094.97	-486
2096.42	-486
2097.87	-486
2099.33	-486
2100.78	-486
2102.24	-486
2103.69	-486
2105.14	-486
2106.6	-486
2108.05	-486
2109.5	-486
2110.95	-486
2112.4	-486
2113.86	-486
2115.31	-486
2116.76	-486
2118.21	-486
2119.66	-486
2121.11	-486
2122.56	-486
2124.01	-486
2125.46	-486
2126.91	-486
2128.35	-486
2129.8	-486
2131.25	-486
2132.7	-486
2134.15	-486
2135.59	-486
2137.04	-486
2138.49	-486
2139.94	-486
2141.38	-486
2142.83	-486
2144.27	-486
2145.72	-486
2147.16	-486
2148.61	-486
2150.05	-486
2151.5	-486
2152.94	-486
2154.39	-486
2155.83	-486
2157.27	-486
2158.72	-486
2160.16	-486
2161.6	-486
2163.05	-486
2164.49	-486
2165.93	-486
2167.37	-486
2168.81	-486
2170.26	-486
2171.7	-486
2173.14	-486
2174.58	-486
2176.02	-486
2177.46	-486
2178.9	-486
2180.34	-486
2181.77	-486
2183.21	-486
2184.65	-486
2186.09	-486
2187.53	-486
2188.97	-486
2190.4	-486
2191.84	-486
2193.28	-486
2194.71	-486
2196.15	-486
2197.59	-486
2199.02	-486
2200.46	-486
2201.89	-486
2203.33	-486
2204.76	-486
2206.2	-486
2207.63	-486
2209.07	-486
2210.5	-486
2211.93	-486
2213.37	-486
2214.8	-486
2216.23	-486
2217.67	-486
2219.1	-486
2220.53	-486
2221.96	-486
2223.39	-486
2224.82	-486
2226.26	-486
2227.69	-486
2229.12	-486
2230.55	-486
2231.98	-486
2233.41	-486
2234.84	-486
2236.26	-486
2237.69	-486
2239.12	-486
2240.55	-486
2241.98	-486
2243.41	-486
2244.83	-486
2246.26	-486
2247.69	-486
2249.11	-486
2250.54	-486
2251.97	-486
2253.39	-486
2254.82	-486
2256.24	-486
2257.67	-486
2259.09	-486
2260.52	-486
2261.94	-486
2263.37	-486
2264.79	-486
2266.22	-486
2267.64	-486
2269.06	-486
2270.49	-486
2271.91	-486
2273.33	-486
2274.75	-486
2276.18	-486
2277.59	-486
2279.02	-486
2280.44	-486
2281.86	-486
2283.28	-486
2284.7	-486
2286.12	-486
2287.54	-486
2288.96	-486
2290.38	-486
2291.8	-486
2293.22	-486
2294.63	-486
2296.05	-486
2297.47	-486
2298.89	-486
2300.31	-486
2301.72	-486
2303.14	-486
2304.56	-486
2305.97	-486
2307.39	-486
2308.81	-486
2310.22	-486
2311.64	-486
2313.05	-486
2314.47	-486
2315.88	-486
2317.3	-486
2318.71	-486
2320.12	-486
2321.54	-486
2322.95	-486
2324.36	-486
2325.78	-486
2327.19	-486
2328.6	-486
2330.01	-486
2331.43	-486
2332.84	-486
2334.25	-486
2335.66	-486
2337.07	-486
2338.48	-486
2339.89	-486
2341.3	-486
2342.71	-486
2344.12	-486
2345.53	-486
2346.94	-486
2348.35	-486
2349.76	-486
2351.17	-486
2352.57	-486
2353.98	-486
2355.39	-486
2356.8	-486
2358.2	-486
2359.61	-486
2361.02	-486
2362.42	-486
2363.83	-486
2365.23	-486
2366.64	-486
2368.04	-486
2369.45	-486
2370.85	-486
2372.26	-486
2373.66	-486
2375.07	-486
2376.47	-486
2377.87	-486
2379.28	-486
2380.68	-486
2382.08	-486
2383.49	-486
2384.89	-486
2386.29	-486
2387.69	-486
2389.09	-486
2390.49	-486
2391.9	-486
2393.3	-486
2394.7	-486
2396.1	-486
2397.5	-486
2398.9	-486
2400.29	-486
2401.69	-486
2403.09	-486
2404.49	-486
2405.89	-486
2407.29	-486
2408.69	-486
2410.08	-486
2411.48	-486
2412.88	-486
2414.28	-486
2415.67	-486
2417.07	-486
2418.47	-486
2419.86	-486
2421.26	-486
2422.65	-486
2424.05	-486
2425.44	-486
2426.84	-486
2428.23	-486
2429.62	-486
2431.02	-486
2432.41	-486
2433.81	-486
2435.2	-486
2436.59	-486
2437.98	-486
2439.38	-486
2440.77	-486
2442.16	-486
2443.55	-486
2444.94	-486
2446.34	-486
2447.73	-486
2449.12	-486
2450.51	-486
2451.9	-486
2453.29	-486
2454.68	-486
2456.07	-486
2457.46	-486
2458.84	-486
2460.23	-486
2461.62	-486
2463.01	-486
2464.4	-486
2465.78	-486
2467.17	-486
2468.56	-486
2469.95	-486
2471.33	-486
2472.72	-486
2474.1	-486
2475.49	-486
2476.88	-486
2478.26	-486
2479.65	-486
2481.03	-486
2482.42	-486
2483.8	-486
2485.19	-486
2486.57	-486
2487.95	-486
2489.34	-486
2490.72	-486
2492.1	-486
2493.49	-486
2494.87	-486
2496.25	-486
2497.63	-486
2499.01	-486
2500.39	-486
2501.77	-486
2503.16	-486
2504.54	-486
2505.92	-486
2507.3	-486
2508.68	-486
2510.06	-486
2511.44	-486
2512.81	-486
2514.19	-486
2515.57	-486
2516.95	-486
2518.33	-486
2519.71	-486
2521.08	-486
2522.46	-486
2523.84	-486
2525.22	-486
2526.59	-486
2527.97	-486
2529.35	-486
2530.72	-486
2532.1	-486
2533.47	-486
2534.85	-486
2536.22	-486
2537.6	-486
2538.97	-486
2540.35	-486
2541.72	-486
2543.09	-486
2544.47	-486
2545.84	-486
2547.21	-486
2548.59	-486
2549.96	-486
2551.33	-486
2552.7	-486
2554.08	-486
2555.45	-486
2556.82	-486
2558.19	-486
2559.56	-486
2560.93	-486
2562.3	-486
2563.67	-486
2565.04	-486
2566.41	-486
2567.78	-486
2569.15	-486
2570.52	-486
2571.89	-486
2573.25	-486
2574.62	-486
2575.99	-486
2577.36	-486
2578.73	-486
2580.09	-486
2581.46	-486
2582.83	-486
2584.19	-486
2585.56	-486
2586.93	-486
2588.29	-486
2589.66	-486
2591.02	-486
2592.39	-486
2593.75	-486
2595.12	-486
2596.48	-486
2597.84	-486
2599.21	-486
2600.57	-486
2601.93	-486
2603.3	-486
2604.66	-486
2606.02	-486
2607.39	-486
2608.75	-486
2610.11	-486
2611.47	-486
2612.83	-486
2614.19	-486
2615.55	-486
2616.91	-486
2618.27	-486
2619.63	-486
2620.99	-486
2622.35	-486
2623.71	-486
2625.07	-486
2626.43	-486
2627.79	-486
2629.15	-486
2630.51	-486
2631.86	-486
2633.22	-486
2634.58	-486
2635.94	-486
2637.29	-486
2638.65	-486
2640.01	-486
2641.36	-486
2642.72	-486
2644.08	-486
2645.43	-486
2646.79	-486
2648.14	-486
2649.49	-486
2650.85	-486
2652.2	-486
2653.56	-486
2654.91	-486
2656.26	-486
2657.62	-486
2658.97	-486
2660.32	-486
2661.68	-486
2663.03	-486
2664.38	-486
2665.73	-486
2667.09	-486
2668.44	-486
2669.79	-486
2671.14	-486
2672.49	-486
2673.84	-486
2675.19	-486
2676.54	-486
2677.89	-486
2679.24	-486
2680.59	-486
2681.94	-486
2683.29	-486
2684.63	-486
2685.98	-486
2687.33	-486
2688.68	-486
2690.03	-486
2691.37	-486
2692.72	-486
2694.07	-486
2695.41	-486
2696.76	-486
2698.11	-486
2699.45	-486
2700.8	-486
2702.14	-486
2703.49	-486
2704.83	-486
2706.18	-486
2707.52	-486
2708.87	-486
2710.21	-486
2711.55	-486
2712.9	-486
2714.24	-486
2715.58	-486
2716.93	-486
2718.27	-486
2719.61	-486
2720.95	-486
2722.3	-486
2723.64	-486
2724.98	-486
2726.32	-486
2727.66	-486
2729	-486
2730.34	-486
2731.68	-486
2733.02	-486
2734.36	-486
2735.7	-486
2737.04	-486
2738.38	-486
2739.72	-486
2741.06	-486
2742.39	-486
2743.73	-486
2745.07	-486
2746.41	-486
2747.74	-486
2749.08	-486
2750.42	-486
2751.75	-486
2753.09	-486
2754.43	-486
2755.76	-486
2757.1	-486
2758.43	-486
2759.77	-486
2761.1	-486
2762.44	-486
2763.77	-486
2765.11	-486
2766.44	-486
2767.78	-486
2769.11	-486
2770.44	-486
2771.78	-486
2773.11	-486
2774.44	-486
2775.77	-486
2777.11	-486
2778.44	-486
2779.77	-486
2781.1	-486
2782.43	-486
2783.76	-486
2785.09	-486
2786.42	-486
2787.76	-486
2789.08	-486
2790.41	-486
2791.74	-486
2793.07	-486
2794.4	-486
2795.73	-486
2797.06	-486
2798.39	-486
2799.72	-486
2801.04	-486
2802.37	-486
2803.7	-486
2805.03	-486
2806.35	-486
2807.68	-486
2809.01	-486
2810.33	-486
2811.66	-486
2812.98	-486
2814.31	-486
2815.63	-486
2816.96	-486
2818.28	-486
2819.61	-486
2820.94	-486
2822.26	-486
2823.58	-486
2824.91	-486
2826.23	-486
2827.55	-486
2828.88	-486
2830.2	-486
2831.52	-486
2832.84	-486
2834.16	-486
2835.49	-486
2836.81	-486
2838.13	-486
2839.45	-486
2840.77	-486
2842.09	-486
2843.41	-486
2844.73	-486
2846.05	-486
2847.37	-486
2848.69	-486
2850.01	-486
2851.33	-486
2852.65	-486
2853.97	-486
2855.29	-486
2856.6	-486
2857.92	-486
2859.24	-486
2860.56	-486
2861.87	-486
2863.19	-486
2864.51	-486
2865.82	-486
2867.14	-486
2868.46	-486
2869.77	-486
2871.09	-486
2872.4	-486
2873.72	-486
2875.03	-486
2876.35	-486
2877.66	-486
2878.98	-486
2880.29	-486
2881.6	-486
2882.92	-486
2884.23	-486
2885.54	-486
2886.86	-486
2888.17	-486
2889.48	-486
2890.79	-486
2892.1	-486
2893.42	-486
2894.73	-486
2896.04	-486
2897.35	-486
2898.66	-486
2899.97	-486
2901.28	-486
2902.59	-486
2903.9	-486
2905.21	-486
2906.52	-486
2907.83	-486
2909.14	-486
2910.45	-486
2911.76	-486
2913.06	-486
2914.37	-486
2915.68	-486
2916.99	-486
2918.29	-486
2919.6	-486
2920.91	-486
2922.21	-486
2923.52	-486
2924.83	-486
2926.13	-486
2927.44	-486
2928.74	-486
2930.05	-486
2931.35	-486
2932.66	-486
2933.96	-486
2935.27	-486
2936.57	-486
2937.88	-486
2939.18	-486
2940.48	-486
2941.79	-486
2943.09	-486
2944.39	-486
2945.69	-486
2946.99	-486
2948.3	-486
2949.6	-486
2950.9	-486
2952.2	-486
2953.5	-486
2954.8	-486
2956.1	-486
2957.4	-486
2958.7	-486
2960	-486
2961.3	-486
2962.6	-486
2963.9	-486
2965.2	-486
2966.5	-486
2967.8	-486
2969.1	-486
2970.4	-486
2971.69	-486
2972.99	-486
2974.29	-486
2975.59	-486
2976.88	-486
2978.18	-486
2979.48	-486
2980.77	-486
2982.07	-486
2983.36	-486
2984.66	-486
2985.95	-486
2987.25	-486
2988.55	-486
2989.84	-486
2991.13	-486
2992.43	-486
2993.72	-486
2995.02	-486
2996.31	-486
2997.6	-486
2998.9	-486
3000.19	-486
3001.48	-486
3002.77	-486
3004.07	-486
3005.36	-486
3006.65	-486
3007.94	-486
3009.23	-486
3010.53	-486
3011.82	-486
3013.11	-486
3014.4	-486
3015.69	-486
3016.98	-486
3018.27	-486
3019.56	-486
3020.85	-486
3022.13	-486
3023.42	-486
3024.71	-486
3026	-486
3027.29	-486
3028.58	-486
3029.86	-486
3031.15	-486
3032.44	-486
3033.73	-486
3035.01	-486
3036.3	-486
3037.58	-486
3038.87	-486
3040.16	-486
3041.44	-486
3042.73	-486
3044.01	-486
3045.3	-486
3046.58	-486
3047.87	-486
3048.04	-486
3049.33	-486
3050.62	-486
3051.91	-486
3053.2	-486
3054.49	-486
3055.77	-486
3057.06	-486
3058.35	-486
3059.64	-486
3060.93	-486
3062.22	-486
3063.51	-486
3064.79	-486
3066.08	-486
3067.37	-486
3068.66	-486
3069.94	-486
3071.23	-486
3072.52	-486
3073.8	-486
3075.09	-486
3076.37	-486
3077.66	-486
3078.94	-486
3080.23	-486
3081.51	-486
3082.8	-486
3084.08	-486
3085.37	-486
3086.65	-486
3087.94	-486
3089.22	-486
3090.5	-486
3091.78	-486
3093.07	-486
3094.35	-486
3095.63	-486
3096.91	-486
3098.2	-486
3099.48	-486
3100.76	-486
3102.04	-486
3103.32	-486
3104.6	-486
3105.88	-486
3107.16	-486
3108.44	-486
3109.72	-486
3111	-486
3112.28	-486
3113.56	-486
3114.84	-486
3116.12	-486
3117.4	-486
3118.68	-486
3119.96	-486
3121.23	-486
3122.51	-486
3123.79	-486
3125.07	-486
3126.34	-486
3127.62	-486
3128.9	-486
3130.18	-486
3131.45	-486
3132.73	-486
3134	-486
3135.28	-486
3136.55	-486
3137.83	-486
3139.1	-486
3140.38	-486
3141.65	-486
3142.93	-486
3144.2	-486
3145.47	-486
3146.75	-486
3148.02	-486
3149.29	-486
3150.57	-486
3151.84	-486
3153.11	-486
3154.39	-486
3155.66	-486
3156.93	-486
3158.2	-486
3159.47	-486
3160.74	-486
3162.01	-486
3163.28	-486
3164.56	-486
3165.83	-486
3167.1	-486
3168.37	-486
3169.64	-486
3170.91	-486
3172.18	-486
3173.44	-486
3174.71	-486
3175.98	-486
3177.25	-486
3178.52	-486
3179.79	-486
3181.05	-486
3182.32	-486
3183.59	-486
3184.86	-486
3186.12	-486
3187.39	-486
3188.66	-486
3189.92	-486
3191.19	-486
3192.45	-486
3193.72	-486
3194.98	-486
3196.25	-486
3197.51	-486
3198.78	-486
3200.04	-486
3201.31	-486
3202.57	-486
3203.84	-486
3205.1	-486
3206.36	-486
3207.63	-486
3208.89	-486
3210.15	-486
3211.41	-486
3212.68	-486
3213.94	-486
3215.2	-486
3216.46	-486
3217.72	-486
3218.99	-486
3220.25	-486
3221.51	-486
3222.77	-486
3224.03	-486
3225.29	-486
3226.55	-486
3227.81	-486
3229.07	-486
3230.33	-486
3231.59	-486
3232.84	-486
3234.1	-486
3235.36	-486
3236.62	-486
3237.88	-486
3239.13	-486
3240.39	-486
3241.65	-486
3242.91	-486
3244.16	-486
3245.42	-486
3246.68	-486
3247.93	-486
3249.19	-486
3250.45	-486
3251.7	-486
3252.96	-486
3254.21	-486
3255.47	-486
3256.72	-486
3257.98	-486
3259.23	-486
3260.49	-486
3261.74	-486
3262.99	-486
3264.25	-486
3265.5	-486
3266.75	-486
3268	-486
3269.26	-486
3270.51	-486
3271.76	-486
3273.02	-486
3274.27	-486
3275.52	-486
3276.77	-486
3278.02	-486
3279.27	-486
3280.52	-486
3281.77	-486
3283.02	-486
3284.27	-486
3285.52	-486
3286.77	-486
3288.02	-486
3289.27	-486
3290.52	-486
3291.77	-486
3293.02	-486
3294.27	-486
3295.51	-486
3296.76	-486
3298.01	-486
3299.26	-486
3300.5	-486
3301.75	-486
3303	-486
3304.24	-486
3305.49	-486
3306.74	-486
3307.99	-486
3309.23	-486
3310.48	-486
3311.72	-486
3312.97	-486
3314.21	-486
3315.46	-486
3316.7	-486
3317.94	-486
3319.19	-486
3320.43	-486
3321.68	-486
3322.92	-486
3324.16	-486
3325.41	-486
3326.65	-486
3327.89	-486
3329.13	-486
3330.38	-486
3331.62	-486
3332.86	-486
3334.1	-486
3335.34	-486
3336.58	-486
3337.83	-486
3339.07	-486
3340.31	-486
3341.55	-486
3342.79	-486
3344.03	-486
3345.27	-486
3346.51	-486
3347.75	-486
3348.99	-486
3350.22	-486
3351.46	-486
3352.7	-486
3353.94	-486
3355.18	-486
3356.42	-486
3357.65	-486
3358.89	-486
3360.13	-486
3361.36	-486
3362.6	-486
3363.84	-486
3365.07	-486
3366.31	-486
3367.55	-486
3368.78	-486
3370.02	-486
3371.25	-486
3372.49	-486
3373.72	-486
3374.96	-486
3376.19	-486
3377.43	-486
3378.66	-486
3379.89	-486
3381.13	-486
3382.36	-486
3383.59	-486
3384.83	-486
3386.06	-486
3387.29	-486
3388.52	-486
3389.76	-486
3390.99	-486
3392.22	-486
3393.45	-486
3394.68	-486
3395.91	-486
3397.15	-486
3398.38	-486
3399.61	-486
3400.84	-486
3402.07	-486
3403.3	-486
3404.53	-486
3405.76	-486
3406.99	-486
3408.21	-486
3409.44	-486
3410.67	-486
3411.9	-486
3413.13	-486
3414.36	-486
3415.58	-486
3416.81	-486
3418.04	-486
3419.27	-486
3420.49	-486
3421.72	-486
3422.95	-486
3424.17	-486
3425.4	-486
3426.62	-486
3427.85	-486
3429.08	-486
3430.3	-486
3431.53	-486
3432.75	-486
3433.98	-486
3435.2	-486
3436.42	-486
3437.65	-486
3438.87	-486
3440.1	-486
3441.32	-486
3442.54	-486
3443.76	-486
3444.99	-486
3446.21	-486
3447.43	-486
3448.66	-486
3449.88	-486
3451.1	-486
3452.32	-486
3453.54	-486
3454.76	-486
3455.98	-486
3457.21	-486
3458.43	-486
3459.65	-486
3460.87	-486
3462.09	-486
3463.3	-486
3464.53	-486
3465.74	-486
3466.96	-486
3468.18	-486
3469.4	-486
3470.62	-486
3471.84	-486
3473.06	-486
3474.27	-486
3475.49	-486
3476.71	-486
3477.93	-486
3479.14	-486
3480.36	-486
3481.58	-486
3482.79	-486
3484.01	-486
3485.22	-486
3486.44	-486
3487.66	-486
3488.87	-486
3490.09	-486
3491.3	-486
3492.52	-486
3493.73	-486
3494.95	-486
3496.16	-486
3497.37	-486
3498.59	-486
3499.8	-486
3501.01	-486
3502.23	-486
3503.44	-486
3504.65	-486
3505.87	-486
3507.08	-486
3508.29	-486
3509.5	-486
3510.71	-486
3511.93	-486
3513.14	-486
3514.35	-486
3515.56	-486
3516.77	-486
3517.98	-486
3519.19	-486
3520.4	-486
3521.61	-486
3522.82	-486
3524.03	-486
3525.24	-486
3526.45	-486
3527.66	-486
3528.86	-486
3530.07	-486
3531.28	-486
3532.49	-486
3533.7	-486
3534.9	-486
3536.11	-486
3537.32	-486
3538.53	-486
3539.73	-486
3540.94	-486
3542.15	-486
3543.35	-486
3544.56	-486
3545.76	-486
3546.97	-486
3548.18	-486
3549.38	-486
3550.59	-486
3551.79	-486
3553	-486
3554.2	-486
3555.4	-486
3556.61	-486
3557.81	-486
3559.02	-486
3560.22	-486
3561.42	-486
3562.62	-486
3563.83	-486
3565.03	-486
3566.23	-486
3567.44	-486
3568.64	-486
3569.84	-486
3571.04	-486
3572.24	-486
3573.44	-486
3574.64	-486
3575.84	-486
3577.04	-486
3578.25	-486
3579.45	-486
3580.65	-486
3581.84	-486
3583.04	-486
3584.24	-486
3585.44	-486
3586.64	-486
3587.84	-486
3589.04	-486
3590.24	-486
3591.44	-486
3592.63	-486
3593.83	-486
3595.03	-486
3596.23	-486
3597.42	-486
3598.62	-486
3599.82	-486
3601.01	-486
3602.21	-486
3603.41	-486
3604.6	-486
3605.8	-486
3606.99	-486
3608.19	-486
3609.38	-486
3610.58	-486
3611.77	-486
3612.97	-486
3614.16	-486
3615.36	-486
3616.55	-486
3617.74	-486
3618.94	-486
3620.13	-486
3621.32	-486
3622.52	-486
3623.71	-486
3624.9	-486
3626.09	-486
3627.29	-486
3628.48	-486
3629.67	-486
3630.86	-486
3632.05	-486
3633.24	-486
3634.44	-486
3635.63	-486
3636.82	-486
3638.01	-486
3639.2	-486
3640.39	-486
3641.58	-486
3642.77	-486
3643.95	-486
3645.15	-486
3646.33	-486
3647.52	-486
3648.71	-486
3649.9	-486
3651.09	-486
3652.28	-486
3653.46	-486
3654.65	-486
3655.84	-486
3657.03	-486
3658.21	-486
3659.4	-486
3660.58	-486
3661.77	-486
3662.96	-486
3664.14	-486
3665.33	-486
3666.52	-486
3667.7	-486
3668.89	-486
3670.07	-486
3671.25	-486
3672.44	-486
3673.62	-486
3674.81	-486
3675.99	-486
3677.18	-486
3678.36	-486
3679.54	-486
3680.73	-486
3681.91	-486
3683.09	-486
3684.27	-486
3685.46	-486
3686.64	-486
3687.82	-486
3689	-486
3690.19	-486
3691.37	-486
3692.55	-486
3693.73	-486
3694.91	-486
3696.09	-486
3697.27	-486
3698.45	-486
3699.63	-486
3700.81	-486
3701.99	-486
3703.17	-486
3704.35	-486
3705.53	-486
3706.71	-486
3707.89	-486
3709.06	-486
3710.24	-486
3711.42	-486
3712.6	-486
3713.78	-486
3714.95	-486
3716.13	-486
3717.31	-486
3718.48	-486
3719.66	-486
3720.84	-486
3722.01	-486
3723.19	-486
3724.37	-486
3725.54	-486
3726.72	-486
3727.89	-486
3729.07	-486
3730.24	-486
3731.42	-486
3732.59	-486
3733.77	-486
3734.94	-486
3736.12	-486
3737.29	-486
3738.46	-486
3739.64	-486
3740.81	-486
3741.98	-486
3743.15	-486
3744.33	-486
3745.5	-486
3746.67	-486
3747.84	-486
3749.02	-486
3750.19	-486
3751.36	-486
3752.53	-486
3753.7	-486
3754.87	-486
3756.04	-486
3757.21	-486
3758.38	-486
3759.55	-486
3760.72	-486
3761.89	-486
3763.06	-486
3764.23	-486
3765.4	-486
3766.57	-486
3767.74	-486
3768.91	-486
3770.08	-486
3771.24	-486
3772.41	-486
3773.58	-486
3774.75	-486
3775.91	-486
3777.08	-486
3778.25	-486
3779.41	-486
3780.58	-486
3781.75	-486
3782.91	-486
3784.08	-486
3785.25	-486
3786.41	-486
3787.58	-486
3788.74	-486
3789.91	-486
3791.07	-486
3792.24	-486
3793.4	-486
3794.57	-486
3795.73	-486
3796.89	-486
3798.06	-486
3799.22	-486
3800.38	-486
3801.55	-486
3802.71	-486
3803.87	-486
3805.03	-486
3806.2	-486
3807.36	-486
3808.52	-486
3809.68	-486
3810.84	-486
3812.01	-486
3813.17	-486
3814.33	-486
3815.49	-486
3816.65	-486
3817.81	-486
3818.97	-486
3820.13	-486
3821.29	-486
3822.45	-486
3823.61	-486
3824.77	-486
3825.93	-486
3827.09	-486
3828.24	-486
3829.4	-486
3830.56	-486
3831.72	-486
3832.88	-486
3834.04	-486
3835.19	-486
3836.35	-486
3837.51	-486
3838.66	-486
3839.82	-486
3840.98	-486
3842.13	-486
3843.29	-486
3844.45	-486
3845.6	-486
3846.76	-486
3847.91	-486
3849.07	-486
3850.22	-486
3851.38	-486
3852.53	-486
3853.69	-486
3854.84	-486
3856	-486
3857.15	-486
3858.3	-486
3859.46	-486
3860.61	-486
3861.76	-486
3862.92	-486
3864.07	-486
3865.22	-486
3866.37	-486
3867.53	-486
3868.68	-486
3869.83	-486
3870.98	-486
3872.13	-486
3873.28	-486
3874.43	-486
3875.59	-486
3876.74	-486
3877.89	-486
3879.04	-486
3880.19	-486
3881.34	-486
3882.49	-486
3883.64	-486
3884.79	-486
3885.93	-486
3887.08	-486
3888.23	-486
3889.38	-486
3890.53	-486
3891.68	-486
3892.83	-486
3893.97	-486
3895.12	-486
3896.27	-486
3897.41	-486
3898.56	-486
3899.71	-486
3900.86	-486
3902	-486
3903.15	-486
3904.29	-486
3905.44	-486
3906.59	-486
3907.73	-486
3908.88	-486
3910.02	-486
3911.17	-486
3912.31	-486
3913.46	-486
3914.6	-486
3915.75	-486
3916.89	-486
3918.03	-486
3919.18	-486
3920.32	-486
3921.46	-486
3922.61	-486
3923.75	-486
3924.89	-486
3926.03	-486
3927.18	-486
3928.32	-486
3929.46	-486
3930.6	-486
3931.74	-486
3932.89	-486
3934.03	-486
3935.17	-486
3936.31	-486
3937.45	-486
3938.59	-486
3939.73	-486
3940.87	-486
3942.01	-486
3943.15	-486
3944.29	-486
3945.43	-486
3946.57	-486
3947.71	-486
3948.84	-486
3949.98	-486
3951.12	-486
3952.26	-486
3953.4	-486
3954.54	-486
3955.67	-486
3956.81	-486
3957.95	-486
3959.09	-486
3960.22	-486
3961.36	-486
3962.5	-486
3963.63	-486
3964.77	-486
3965.9	-486
3967.04	-486
3968.18	-486
3969.31	-486
3970.45	-486
3971.58	-486
3972.72	-486
3973.85	-486
3974.99	-486
3976.12	-486
3977.25	-486
3978.39	-486
3979.52	-486
3980.65	-486
3981.79	-486
3982.92	-486
3984.05	-486
3985.19	-486
3986.32	-486
3987.45	-486
3988.58	-486
3989.72	-486
3990.85	-486
3991.98	-486
3993.11	-486
3994.24	-486
3995.37	-486
3996.5	-486
3997.64	-486
3998.77	-486
3999.9	-486
